3/12/2021 4:29:56 PM
Series 1
-----------------------------------------------
Frequency (kHz)	Degrees (Â°)
182.913   79.385
182.922   79.901
182.932   79.371
182.942   78.443
182.951   78.704
182.961   78.462
182.971   78.257
182.981   78.198
182.990   78.175
183.000   77.816
183.010   77.500
183.019   77.639
183.029   77.136
183.039   77.281
183.049   76.366
183.058   76.332
183.068   76.383
183.078   76.324
183.088   75.713
183.097   76.017
183.107   75.302
183.117   75.544
183.126   75.418
183.136   75.143
183.146   75.227
183.156   74.913
183.165   75.161
183.175   74.684
183.185   74.291
183.194   74.085
183.204   74.061
183.214   73.968
183.224   73.664
183.233   73.685
183.243   73.413
183.253   73.542
183.263   73.407
183.272   73.491
183.282   72.894
183.292   72.892
183.301   72.912
183.311   72.844
183.321   72.365
183.331   72.224
183.340   72.512
183.350   72.467
183.360   72.193
183.370   71.944
183.379   71.695
183.389   71.342
183.399   71.482
183.408   71.671
183.418   70.889
183.428   71.416
183.438   71.025
183.447   71.193
183.457   71.055
183.467   70.911
183.476   70.982
183.486   70.452
183.496   70.507
183.506   70.468
183.515   70.551
183.525   70.227
183.535   70.283
183.545   70.183
183.554   70.259
183.564   70.668
183.574   70.134
183.583   69.526
183.593   70.427
183.603   70.129
183.613   69.820
183.622   70.067
183.632   70.094
183.642   69.976
183.651   69.929
183.661   69.732
183.671   69.813
183.681   69.585
183.690   69.651
183.700   69.919
183.710   69.687
183.720   69.143
183.729   69.406
183.739   69.342
183.749   69.246
183.758   69.517
183.768   69.270
183.778   69.373
183.788   69.090
183.797   69.776
183.807   69.011
183.817   69.089
183.827   69.180
183.836   69.557
183.846   69.220
183.856   69.468
183.865   69.225
183.875   69.348
183.885   69.687
183.895   68.931
183.904   69.534
183.914   69.479
183.924   69.368
183.933   69.360
183.943   69.235
183.953   69.336
183.963   69.332
183.972   69.458
183.982   69.569
183.992   69.665
184.002   69.616
184.011   69.744
184.021   69.646
184.031   69.509
184.040   69.701
184.050   69.564
184.060   69.726
184.070   69.901
184.079   69.429
184.089   69.928
184.099   69.877
184.108   69.960
184.118   70.286
184.128   70.133
184.138   70.158
184.147   70.154
184.157   70.297
184.167   69.909
184.177   70.222
184.186   70.211
184.196   70.432
184.206   70.444
184.215   70.395
184.225   70.396
184.235   70.592
184.245   70.479
184.254   70.664
184.264   70.876
184.274   70.701
184.284   71.047
184.293   71.175
184.303   70.988
184.313   71.045
184.322   71.112
184.332   71.133
184.342   71.067
184.352   71.306
184.361   71.434
184.371   71.613
184.381   71.269
184.390   71.352
184.400   71.598
184.410   71.754
184.420   71.505
184.429   71.790
184.439   71.986
184.449   71.518
184.459   71.630
184.468   71.929
184.478   72.264
184.488   72.160
184.497   72.206
184.507   72.441
184.517   72.393
184.527   72.317
184.536   72.279
184.546   72.660
184.556   72.647
184.565   72.676
184.575   72.703
184.585   72.867
184.595   73.136
184.604   73.304
184.614   73.209
184.624   73.207
184.634   73.247
184.643   73.337
184.653   73.535
184.663   73.592
184.672   73.647
184.682   73.857
184.692   73.833
184.702   74.002
184.711   74.009
184.721   73.808
184.731   74.353
184.741   74.371
184.750   74.381
184.760   74.294
184.770   74.656
184.779   74.536
184.789   74.628
184.799   74.881
184.809   74.801
184.818   75.153
184.828   75.163
184.838   75.055
184.847   75.274
184.857   75.330
184.867   75.590
184.877   75.689
184.886   75.544
184.896   75.609
184.906   75.861
184.916   76.016
184.925   76.030
184.935   76.094
184.945   76.326
184.954   76.305
184.964   76.244
184.974   76.462
184.984   76.742
184.993   76.487
185.003   76.905
185.013   76.877
185.022   77.179
185.032   77.065
185.042   77.385
185.052   77.415
185.061   77.501
185.071   77.642
185.081   77.913
185.091   77.889
185.100   78.240
185.110   78.147
185.120   78.187
185.129   78.376
185.139   78.239
185.149   78.643
185.159   78.581
185.168   79.020
185.178   79.079
185.188   79.170
185.198   79.194
185.207   79.154
185.217   79.387
185.227   79.644
185.236   79.627
185.246   79.794
185.256   79.894
185.266   80.067
185.275   80.030
185.285   80.296
185.295   80.443
185.304   80.591
185.314   80.492
185.324   80.651
185.334   80.914
185.343   81.065
185.353   81.057
185.363   81.238
185.373   81.541
185.382   81.682
185.392   81.734
185.402   81.871
185.411   81.965
185.421   82.252
185.431   82.445
185.441   82.354
185.450   82.578
185.460   82.829
185.470   82.786
185.480   82.913
185.489   83.135
185.499   83.101
185.509   83.433
185.518   83.813
185.528   83.605
185.538   83.862
185.548   83.913
185.557   84.210
185.567   84.293
185.577   84.416
185.586   84.598
185.596   84.712
185.606   84.834
185.616   85.071
185.625   85.239
185.635   85.433
185.645   85.441
185.655   85.614
185.664   85.763
185.674   85.953
185.684   85.956
185.693   86.153
185.703   86.257
185.713   86.395
185.723   86.629
185.732   86.865
185.742   86.951
185.752   86.984
185.761   87.244
185.771   87.387
185.781   87.527
185.791   87.729
185.800   87.971
185.810   87.851
185.820   88.052
185.830   88.213
185.839   88.390
185.849   88.566
185.859   88.744
185.868   89.009
185.878   88.938
185.888   89.213
185.898   89.369
185.907   89.419
185.917   89.650
185.927   89.777
185.937   90.011
185.946   89.886
185.956   90.013
185.966   90.071
185.975   90.219
185.985   90.396
185.995   90.483
186.005   90.631
186.014   90.765
186.024   90.970
186.034   91.120
186.043   91.221
186.053   91.405
186.063   91.566
186.073   91.552
186.082   91.772
186.092   91.899
186.102   92.117
186.112   92.150
186.121   92.365
186.131   92.525
186.141   92.609
186.150   92.685
186.160   92.820
186.170   92.970
186.180   93.068
186.189   93.201
186.199   93.292
186.209   93.428
186.218   93.526
186.228   93.701
186.238   93.754
186.248   93.906
186.257   94.067
186.267   94.276
186.277   94.382
186.287   94.329
186.296   94.554
186.306   94.529
186.316   94.672
186.325   94.945
186.335   94.867
186.345   94.923
186.355   95.097
186.364   95.211
186.374   95.287
186.384   95.319
186.394   95.574
186.403   95.416
186.413   95.521
186.423   95.637
186.432   95.839
186.442   95.899
186.452   95.969
186.462   95.881
186.471   96.038
186.481   95.985
186.491   96.085
186.500   96.222
186.510   96.200
186.520   96.333
186.530   96.294
186.539   96.449
186.549   96.503
186.559   96.414
186.569   96.526
186.578   96.489
186.588   96.603
186.598   96.636
186.607   96.729
186.617   96.625
186.627   96.606
186.637   96.733
186.646   96.661
186.656   96.838
186.666   96.683
186.675   96.760
186.685   96.759
186.695   96.767
186.705   96.746
186.714   96.808
186.724   96.795
186.734   96.680
186.744   96.801
186.753   96.711
186.763   96.749
186.773   96.701
186.782   96.753
186.792   96.576
186.802   96.683
186.812   96.534
186.821   96.718
186.831   96.626
186.841   96.392
186.851   96.457
186.860   96.496
186.870   96.387
186.880   96.402
186.889   96.485
186.899   96.369
186.909   96.336
186.919   96.279
186.928   96.162
186.938   96.264
186.948   96.172
186.957   96.036
186.967   96.097
186.977   96.067
186.987   96.030
186.996   95.949
187.006   95.942
187.016   95.892
187.026   95.914
187.035   95.835
187.045   95.852
187.055   95.789
187.064   95.730
187.074   95.681
187.084   95.762
187.094   95.733
187.103   95.764
187.113   95.771
187.123   95.751
187.132   95.724
187.142   95.801
187.152   95.813
187.162   95.782
187.171   95.834
187.181   95.895
187.191   95.974
187.201   96.026
187.210   96.072
187.220   96.154
187.230   96.270
187.239   96.352
187.249   96.449
187.259   96.608
187.269   96.740
187.278   96.850
187.288   96.983
187.298   97.182
187.308   97.375
187.317   97.658
187.327   97.870
187.337   98.065
187.346   98.347
187.356   98.640
187.366   98.954
187.376   99.249
187.385   99.591
187.395   99.952
187.405   100.378
187.414   100.853
187.424   101.270
187.434   101.778
187.444   102.257
187.453   102.868
187.463   103.506
187.473   104.147
187.483   104.817
187.492   105.436
187.502   106.316
187.512   107.308
187.521   107.864
187.531   108.916
187.541   109.802
187.551   110.845
187.560   111.963
187.570   113.121
187.580   114.368
187.589   115.663
187.599   117.054
187.609   118.500
187.619   120.027
187.628   121.691
187.638   123.380
187.648   125.195
187.658   127.081
187.667   129.078
187.677   131.165
187.687   133.361
187.696   135.665
187.706   138.041
187.716   140.515
187.726   143.055
187.735   145.717
187.745   148.412
187.755   151.191
187.765   154.016
187.774   156.857
187.784   159.736
187.794   162.628
187.803   165.479
187.813   168.308
187.823   171.090
187.833   173.799
187.842   176.477
187.852   179.052
187.862   -178.478
187.871   -176.043
187.881   -173.755
187.891   -171.541
187.901   -169.446
187.910   -167.441
187.920   -165.534
187.930   -163.751
187.940   -162.018
187.949   -160.409
187.959   -158.884
187.969   -157.421
187.978   -156.099
187.988   -154.775
187.998   -153.571
188.008   -152.416
188.017   -151.303
188.027   -150.269
188.037   -149.303
188.047   -148.343
188.056   -147.464
188.066   -146.614
188.076   -145.816
188.085   -145.033
188.095   -144.307
188.105   -143.612
188.115   -142.933
188.124   -142.303
188.134   -141.668
188.144   -141.109
188.153   -140.548
188.163   -140.027
188.173   -139.509
188.183   -138.992
188.192   -138.539
188.202   -138.076
188.212   -137.638
188.222   -137.229
188.231   -136.825
188.241   -136.466
188.251   -136.076
188.260   -135.702
188.270   -135.352
188.280   -135.034
188.290   -134.666
188.299   -134.401
188.309   -134.063
188.319   -133.788
188.328   -133.512
188.338   -133.218
188.348   -132.954
188.358   -132.729
188.367   -132.446
188.377   -132.217
188.387   -131.988
188.397   -131.692
188.406   -131.502
188.416   -131.354
188.426   -131.082
188.435   -130.871
188.445   -130.670
188.455   -130.458
188.465   -130.267
188.474   -130.097
188.484   -129.952
188.494   -129.705
188.504   -129.581
188.513   -129.389
188.523   -129.247
188.533   -129.004
188.542   -128.863
188.552   -128.682
188.562   -128.495
188.572   -128.385
188.581   -128.223
188.591   -128.068
188.601   -127.904
188.610   -127.747
188.620   -127.578
188.630   -127.419
188.640   -127.333
188.649   -127.182
188.659   -127.005
188.669   -126.864
188.679   -126.713
188.688   -126.516
188.698   -126.389
188.708   -126.316
188.717   -126.184
188.727   -126.043
188.737   -125.867
188.747   -125.699
188.756   -125.504
188.766   -125.377
188.776   -125.266
188.785   -125.110
188.795   -125.032
188.805   -124.851
188.815   -124.690
188.824   -124.588
188.834   -124.399
188.844   -124.312
188.854   -124.172
188.863   -124.010
188.873   -123.852
188.883   -123.763
188.892   -123.603
188.902   -123.326
188.912   -123.302
188.922   -123.149
188.931   -123.023
188.941   -122.832
188.951   -122.700
188.961   -122.583
188.970   -122.486
188.980   -122.349
188.990   -122.165
188.999   -122.056
189.009   -121.908
189.019   -121.759
189.029   -121.628
189.038   -121.403
189.048   -121.289
189.058   -121.061
189.067   -121.041
189.077   -120.846
189.087   -120.614
189.097   -120.599
189.106   -120.378
189.116   -120.309
189.126   -120.055
189.136   -119.934
189.145   -119.841
189.155   -119.594
189.165   -119.598
189.174   -119.391
189.184   -119.246
189.194   -119.023
189.204   -118.914
189.213   -118.779
189.223   -118.602
189.233   -118.420
189.242   -118.281
189.252   -118.171
189.262   -117.980
189.272   -117.861
189.281   -117.612
189.291   -117.530
189.301   -117.325
189.311   -117.178
189.320   -117.052
189.330   -116.875
189.340   -116.676
189.349   -116.554
189.359   -116.331
189.369   -116.192
189.379   -116.036
189.388   -115.862
189.398   -115.726
189.408   -115.519
189.418   -115.295
189.427   -115.162
189.437   -115.068
189.447   -114.756
189.456   -114.623
189.466   -114.538
189.476   -114.322
189.486   -114.150
189.495   -113.955
189.505   -113.757
189.515   -113.563
189.524   -113.370
189.534   -113.282
189.544   -113.017
189.554   -112.836
189.563   -112.730
189.573   -112.504
189.583   -112.224
189.593   -112.093
189.602   -111.951
189.612   -111.661
189.622   -111.499
189.631   -111.313
189.641   -111.155
189.651   -110.991
189.661   -110.810
189.670   -110.541
189.680   -110.423
189.690   -110.222
189.699   -109.946
189.709   -109.785
189.719   -109.617
189.729   -109.356
189.738   -109.249
189.748   -108.889
189.758   -108.817
189.768   -108.553
189.777   -108.342
189.787   -108.196
189.797   -107.966
189.806   -107.785
189.816   -107.605
189.826   -107.379
189.836   -107.107
189.845   -106.925
189.855   -106.710
189.865   -106.401
189.875   -106.264
189.884   -105.968
189.894   -105.785
189.904   -105.633
189.913   -105.482
189.923   -105.248
189.933   -104.968
189.943   -104.588
189.952   -104.549
189.962   -104.300
189.972   -104.038
189.981   -103.784
189.991   -103.612
190.001   -103.508
190.011   -103.171
190.020   -102.985
190.030   -102.810
190.040   -102.546
190.050   -102.356
190.059   -102.063
190.069   -101.776
190.079   -101.648
190.088   -101.417
190.098   -101.164
190.108   -100.839
190.118   -100.611
190.127   -100.505
190.137   -100.230
190.147   -100.082
190.156   -99.818
190.166   -99.533
190.176   -99.283
190.186   -99.067
190.195   -98.884
190.205   -98.541
190.215   -98.364
190.225   -98.044
190.234   -97.872
190.244   -97.685
190.254   -97.406
190.263   -97.152
190.273   -96.964
190.283   -96.699
190.293   -96.381
190.302   -96.236
190.312   -96.031
190.322   -95.742
190.332   -95.446
190.341   -95.349
190.351   -95.128
190.361   -94.797
190.370   -94.554
190.380   -94.360
190.390   -94.137
190.400   -93.884
190.409   -93.732
190.419   -93.406
190.429   -93.272
190.438   -92.983
190.448   -92.692
190.458   -92.450
190.468   -92.215
190.477   -92.032
190.487   -91.767
190.497   -91.541
190.507   -91.309
190.516   -91.030
190.526   -90.913
190.536   -90.700
190.545   -90.465
190.555   -90.074
190.565   -89.962
190.575   -89.865
190.584   -89.734
190.594   -89.564
190.604   -89.251
190.614   -89.078
190.623   -88.828
190.633   -88.542
190.643   -88.378
190.652   -88.050
190.662   -87.742
190.672   -87.660
190.682   -87.573
190.691   -87.371
190.701   -86.851
190.711   -86.816
190.720   -86.579
190.730   -86.328
190.740   -86.088
190.750   -85.855
190.759   -85.712
190.769   -85.529
190.779   -85.245
190.789   -85.115
190.798   -84.965
190.808   -84.688
190.818   -84.566
190.827   -84.151
190.837   -84.157
190.847   -83.867
190.857   -83.713
190.866   -83.479
190.876   -83.335
190.886   -83.026
190.895   -82.908
190.905   -82.706
190.915   -82.643
190.925   -82.478
190.934   -82.260
190.944   -82.007
190.954   -81.884
190.964   -81.592
190.973   -81.474
190.983   -81.322
190.993   -81.026
191.002   -80.935
191.012   -80.748
191.022   -80.592
191.032   -80.449
191.041   -80.304
191.051   -79.989
191.061   -80.028
191.071   -79.815
191.080   -79.613
191.090   -79.366
191.100   -79.247
191.109   -79.183
191.119   -79.010
191.129   -78.793
191.139   -78.827
191.148   -78.622
191.158   -78.446
191.168   -78.254
191.177   -78.132
191.187   -78.039
191.197   -77.933
191.207   -77.907
191.216   -77.677
191.226   -77.551
191.236   -77.446
191.246   -77.329
191.255   -77.284
191.265   -77.194
191.275   -77.019
191.284   -76.970
191.294   -76.747
191.304   -76.697
191.314   -76.583
191.323   -76.434
191.333   -76.482
191.343   -76.263
191.352   -76.194
191.362   -76.127
191.372   -75.993
191.382   -75.994
191.391   -75.831
191.401   -75.834
191.411   -75.752
191.421   -75.538
191.430   -75.514
191.440   -75.361
191.450   -75.340
191.459   -75.251
191.469   -74.986
191.479   -75.002
191.489   -74.933
191.498   -74.715
191.508   -74.723
191.518   -74.602
191.528   -74.412
191.537   -74.339
191.547   -74.208
191.557   -74.030
191.566   -73.976
191.576   -73.874
191.586   -73.775
191.596   -73.526
191.605   -73.451
191.615   -73.278
191.625   -73.105
191.634   -72.969
191.644   -72.810
191.654   -72.747
191.664   -72.562
191.673   -72.370
191.683   -72.142
191.693   -71.949
191.703   -71.794
191.712   -71.634
191.722   -71.456
191.732   -71.365
191.741   -71.251
191.751   -71.097
191.761   -70.811
191.771   -70.573
191.780   -70.425
191.790   -70.229
191.800   -70.032
191.809   -69.686
191.819   -69.471
191.829   -69.386
191.839   -69.243
191.848   -69.063
191.858   -68.642
191.868   -68.435
191.878   -68.342
191.887   -68.060
191.897   -67.971
191.907   -67.635
191.916   -67.598
191.926   -67.243
191.936   -67.157
191.946   -66.804
191.955   -66.716
191.965   -66.432
191.975   -66.195
191.985   -66.070
191.994   -65.803
192.004   -65.608
192.014   -65.468
192.023   -65.139
192.033   -64.845
192.043   -64.700
192.053   -64.471
192.062   -64.271
192.072   -64.078
192.082   -63.817
192.091   -63.602
192.101   -63.369
192.111   -63.147
192.121   -63.022
192.130   -62.707
192.140   -62.512
192.150   -62.273
192.160   -62.037
192.169   -61.871
192.179   -61.737
192.189   -61.514
192.198   -61.162
192.208   -60.942
192.218   -60.855
192.228   -60.581
192.237   -60.363
192.247   -60.076
192.257   -59.993
192.266   -59.672
192.276   -59.389
192.286   -59.202
192.296   -59.021
192.305   -58.755
192.315   -58.602
192.325   -58.378
192.335   -58.209
192.344   -57.959
192.354   -57.782
192.364   -57.644
192.373   -57.445
192.383   -57.156
192.393   -57.047
192.403   -56.742
192.412   -56.565
192.422   -56.316
192.432   -56.206
192.442   -55.942
192.451   -55.713
192.461   -55.547
192.471   -55.338
192.480   -55.061
192.490   -54.949
192.500   -54.517
192.510   -54.533
192.519   -54.339
192.529   -54.055
192.539   -53.780
192.548   -53.565
192.558   -53.544
192.568   -53.344
192.578   -53.047
192.587   -52.934
192.597   -52.714
192.607   -52.432
192.617   -52.171
192.626   -52.068
192.636   -51.782
192.646   -51.614
192.655   -51.499
192.665   -51.384
192.675   -51.135
192.685   -50.919
192.694   -50.829
192.704   -50.542
192.714   -50.384
192.723   -50.302
192.733   -50.007
192.743   -49.794
192.753   -49.537
192.762   -49.352
192.772   -49.299
192.782   -49.069
192.792   -48.725
192.801   -48.575
192.811   -48.471
192.821   -48.407
192.830   -48.235
192.840   -47.946
192.850   -47.722
192.860   -47.639
192.869   -47.492
192.879   -47.166
192.889   -47.017
192.899   -46.953
192.908   -46.691



