3/9/2021 6:36:10 PM
Series 1
-----------------------------------------------
Frequency (kHz)	Degrees (Â°)
183.109   -107.093
183.118   -106.811
183.128   -106.527
183.138   -106.333
183.147   -106.089
183.157   -105.840
183.167   -105.613
183.177   -105.340
183.186   -105.037
183.196   -104.851
183.206   -104.386
183.215   -104.243
183.225   -104.039
183.235   -103.715
183.245   -103.495
183.254   -103.243
183.264   -102.949
183.274   -102.690
183.284   -102.338
183.293   -102.162
183.303   -101.863
183.313   -101.649
183.322   -101.339
183.332   -100.993
183.342   -100.766
183.352   -100.394
183.361   -100.095
183.371   -99.932
183.381   -99.599
183.390   -99.333
183.400   -99.003
183.410   -98.841
183.420   -98.473
183.429   -98.243
183.439   -97.944
183.449   -97.739
183.459   -97.222
183.468   -97.116
183.478   -96.674
183.488   -96.438
183.497   -96.111
183.507   -95.821
183.517   -95.625
183.527   -95.374
183.536   -94.895
183.546   -94.595
183.556   -94.410
183.566   -94.060
183.575   -93.754
183.585   -93.406
183.595   -93.261
183.604   -92.804
183.614   -92.527
183.624   -92.217
183.634   -91.868
183.643   -91.669
183.653   -91.343
183.663   -90.999
183.672   -90.725
183.682   -90.394
183.692   -90.317
183.702   -89.979
183.711   -89.782
183.721   -89.544
183.731   -89.184
183.741   -88.809
183.750   -88.595
183.760   -88.333
183.770   -88.120
183.779   -87.708
183.789   -87.448
183.799   -87.066
183.809   -86.736
183.818   -86.522
183.828   -86.180
183.838   -85.865
183.847   -85.563
183.857   -85.280
183.867   -85.033
183.877   -84.680
183.886   -84.400
183.896   -84.098
183.906   -83.784
183.916   -83.524
183.925   -83.261
183.935   -82.990
183.945   -82.559
183.954   -82.333
183.964   -82.115
183.974   -81.775
183.984   -81.423
183.993   -81.188
184.003   -80.919
184.013   -80.619
184.023   -80.349
184.032   -80.019
184.042   -79.709
184.052   -79.486
184.061   -79.134
184.071   -78.765
184.081   -78.569
184.091   -78.244
184.100   -78.026
184.110   -77.702
184.120   -77.368
184.129   -77.158
184.139   -76.858
184.149   -76.487
184.159   -76.288
184.168   -76.092
184.178   -75.680
184.188   -75.473
184.198   -75.208
184.207   -74.926
184.217   -74.617
184.227   -74.360
184.236   -74.074
184.246   -73.796
184.256   -73.625
184.266   -73.243
184.275   -73.095
184.285   -72.719
184.295   -72.459
184.304   -72.251
184.314   -72.046
184.324   -71.671
184.334   -71.470
184.343   -71.183
184.353   -70.986
184.363   -70.620
184.373   -70.342
184.382   -70.124
184.392   -69.961
184.402   -69.723
184.411   -69.356
184.421   -69.039
184.431   -68.801
184.441   -68.598
184.450   -68.395
184.460   -68.170
184.470   -67.826
184.480   -67.610
184.489   -67.367
184.499   -67.072
184.509   -66.868
184.518   -66.536
184.528   -66.426
184.538   -66.099
184.548   -65.897
184.557   -65.580
184.567   -65.447
184.577   -65.115
184.586   -64.808
184.596   -64.653
184.606   -64.356
184.616   -64.131
184.625   -63.882
184.635   -63.668
184.645   -63.424
184.655   -63.148
184.664   -62.973
184.674   -62.732
184.684   -62.472
184.693   -62.212
184.703   -61.937
184.713   -61.797
184.723   -61.594
184.732   -61.291
184.742   -61.014
184.752   -60.803
184.761   -60.496
184.771   -60.351
184.781   -60.168
184.791   -59.930
184.800   -59.759
184.810   -59.446
184.820   -59.282
184.830   -58.992
184.839   -58.865
184.849   -58.597
184.859   -58.409
184.868   -58.140
184.878   -57.895
184.888   -57.693
184.898   -57.429
184.907   -57.212
184.917   -56.950
184.927   -56.830
184.937   -56.609
184.946   -56.336
184.956   -56.166
184.966   -55.922
184.975   -55.677
184.985   -55.499
184.995   -55.348
185.005   -55.038
185.014   -54.814
185.024   -54.594
185.034   -54.435
185.043   -54.307
185.053   -53.947
185.063   -53.815
185.073   -53.678
185.082   -53.436
185.092   -53.131
185.102   -52.927
185.112   -52.692
185.121   -52.524
185.131   -52.385
185.141   -52.116
185.150   -51.881
185.160   -51.694
185.170   -51.625
185.180   -51.297
185.189   -51.109
185.199   -50.883
185.209   -50.675
185.218   -50.453
185.228   -50.287
185.238   -50.091
185.248   -49.902
185.257   -49.708
185.267   -49.513
185.277   -49.294
185.287   -49.093
185.296   -48.954
185.306   -48.724
185.316   -48.596
185.325   -48.331
185.335   -48.188
185.345   -47.923
185.355   -47.766
185.364   -47.572
185.374   -47.416
185.384   -47.164
185.394   -47.024
185.403   -46.744
185.413   -46.619
185.423   -46.341
185.432   -46.168
185.442   -45.990
185.452   -45.938
185.462   -45.706
185.471   -45.459
185.481   -45.158
185.491   -45.082
185.500   -44.896
185.510   -44.670
185.520   -44.554
185.530   -44.355
185.539   -44.174
185.549   -43.990
185.559   -43.785
185.569   -43.622
185.578   -43.385
185.588   -43.166
185.598   -43.072
185.607   -42.867
185.617   -42.677
185.627   -42.493
185.637   -42.280
185.646   -42.097
185.656   -41.975
185.666   -41.774
185.676   -41.600
185.685   -41.377
185.695   -41.243
185.705   -41.049
185.714   -40.860
185.724   -40.682
185.734   -40.548
185.744   -40.431
185.753   -40.224
185.763   -40.051
185.773   -39.877
185.782   -39.662
185.792   -39.521
185.802   -39.274
185.812   -39.165
185.821   -38.925
185.831   -38.832
185.841   -38.651
185.851   -38.357
185.860   -38.272
185.870   -38.125
185.880   -37.904
185.889   -37.786
185.899   -37.548
185.909   -37.316
185.919   -37.283
185.928   -37.071
185.938   -36.909
185.948   -36.812
185.957   -36.649
185.967   -36.369
185.977   -36.192
185.987   -36.121
185.996   -35.853
186.006   -35.733
186.016   -35.562
186.026   -35.324
186.035   -35.194
186.045   -35.044
186.055   -34.841
186.064   -34.712
186.074   -34.542
186.084   -34.389
186.094   -34.169
186.103   -34.042
186.113   -33.852
186.123   -33.761
186.133   -33.570
186.142   -33.345
186.152   -33.215
186.162   -33.066
186.171   -32.926
186.181   -32.683
186.191   -32.583
186.201   -32.456
186.210   -32.235
186.220   -32.147
186.230   -31.918
186.239   -31.821
186.249   -31.628
186.259   -31.499
186.269   -31.349
186.278   -31.221
186.288   -30.982
186.298   -30.881
186.308   -30.679
186.317   -30.547
186.327   -30.422
186.337   -30.301
186.346   -30.092
186.356   -29.905
186.366   -29.866
186.376   -29.628
186.385   -29.563
186.395   -29.350
186.405   -29.264
186.414   -29.083
186.424   -28.945
186.434   -28.837
186.444   -28.580
186.453   -28.490
186.463   -28.413
186.473   -28.200
186.483   -28.049
186.492   -27.886
186.502   -27.724
186.512   -27.662
186.521   -27.451
186.531   -27.326
186.541   -27.275
186.551   -27.027
186.560   -26.998
186.570   -26.756
186.580   -26.649
186.590   -26.580
186.599   -26.397
186.609   -26.236
186.619   -26.148
186.628   -25.997
186.638   -25.847
186.648   -25.748
186.658   -25.554
186.667   -25.409
186.677   -25.370
186.687   -25.153
186.696   -25.064
186.706   -24.850
186.716   -24.755
186.726   -24.586
186.735   -24.422
186.745   -24.361
186.755   -24.133
186.765   -24.020
186.774   -23.945
186.784   -23.734
186.794   -23.636
186.803   -23.524
186.813   -23.380
186.823   -23.211
186.833   -23.079
186.842   -22.914
186.852   -22.777
186.862   -22.640
186.871   -22.516
186.881   -22.401
186.891   -22.227
186.901   -22.045
186.910   -21.924
186.920   -21.777
186.930   -21.657
186.940   -21.529
186.949   -21.336
186.959   -21.211
186.969   -21.033
186.978   -20.909
186.988   -20.715
186.998   -20.599
187.008   -20.352
187.017   -20.219
187.027   -20.014
187.037   -19.885
187.047   -19.759
187.056   -19.602
187.066   -19.399
187.076   -19.218
187.085   -19.107
187.095   -18.895
187.105   -18.733
187.115   -18.531
187.124   -18.388
187.134   -18.194
187.144   -17.952
187.153   -17.784
187.163   -17.620
187.173   -17.405
187.183   -17.205
187.192   -16.971
187.202   -16.770
187.212   -16.581
187.222   -16.370
187.231   -16.140
187.241   -15.898
187.251   -15.676
187.260   -15.412
187.270   -15.168
187.280   -14.900
187.290   -14.728
187.299   -14.413
187.309   -14.155
187.319   -13.915
187.328   -13.581
187.338   -13.296
187.348   -13.011
187.358   -12.702
187.367   -12.375
187.377   -12.113
187.387   -11.761
187.397   -11.382
187.406   -11.041
187.416   -10.662
187.426   -10.296
187.435   -9.919
187.445   -9.502
187.455   -9.087
187.465   -8.697
187.474   -8.208
187.484   -7.801
187.494   -7.427
187.504   -6.681
187.513   -6.432
187.523   -5.724
187.533   -5.238
187.542   -4.624
187.552   -4.039
187.562   -3.428
187.572   -2.766
187.581   -2.099
187.591   -1.403
187.601   -0.685
187.610   0.024
187.620   0.786
187.630   1.647
187.640   2.499
187.649   3.385
187.659   4.360
187.669   5.354
187.679   6.363
187.688   7.442
187.698   8.576
187.708   9.734
187.717   10.972
187.727   12.249
187.737   13.601
187.747   15.000
187.756   16.459
187.766   17.976
187.776   19.553
187.785   21.209
187.795   22.928
187.805   24.695
187.815   26.561
187.824   28.469
187.834   30.462
187.844   32.495
187.854   34.565
187.863   36.751
187.873   38.951
187.883   41.210
187.892   43.512
187.902   45.814
187.912   48.163
187.922   50.529
187.931   52.905
187.941   55.258
187.951   57.611
187.961   59.925
187.970   62.253
187.980   64.487
187.990   66.701
187.999   68.857
188.009   70.951
188.019   72.972
188.029   74.927
188.038   76.822
188.048   78.612
188.058   80.362
188.067   81.998
188.077   83.574
188.087   85.045
188.097   86.479
188.106   87.803
188.116   89.070
188.126   90.237
188.136   91.339
188.145   92.397
188.155   93.398
188.165   94.299
188.174   95.215
188.184   96.022
188.194   96.789
188.204   97.515
188.213   98.153
188.223   98.800
188.233   99.381
188.243   99.940
188.252   100.401
188.262   100.879
188.272   101.266
188.281   101.665
188.291   101.986
188.301   102.307
188.311   102.571
188.320   102.792
188.330   103.025
188.340   103.207
188.349   103.334
188.359   103.511
188.369   103.536
188.379   103.611
188.388   103.651
188.398   103.633
188.408   103.645
188.418   103.668
188.427   103.576
188.437   103.493
188.447   103.415
188.456   103.261
188.466   103.104
188.476   102.895
188.486   102.818
188.495   102.563
188.505   102.342
188.515   102.131
188.524   101.877
188.534   101.506
188.544   101.160
188.554   101.001
188.563   100.588
188.573   100.210
188.583   99.904
188.593   99.482
188.602   99.098
188.612   98.729
188.622   98.252
188.631   97.909
188.641   97.465
188.651   97.011
188.661   96.486
188.670   96.041
188.680   95.584
188.690   95.183
188.700   94.705
188.709   94.168
188.719   93.673
188.729   93.209
188.738   92.741
188.748   92.176
188.758   91.829
188.768   91.212
188.777   90.568
188.787   90.257
188.797   89.908
188.806   89.328
188.816   89.000
188.826   88.411
188.836   88.000
188.845   87.490
188.855   87.016
188.865   86.572
188.875   86.153
188.884   85.772
188.894   85.192
188.904   84.808
188.913   84.453
188.923   84.004
188.933   83.706
188.943   83.306
188.952   83.005
188.962   82.556
188.972   82.285
188.981   81.877
188.991   81.602
189.001   81.439
189.011   81.149
189.020   80.783
189.030   80.582
189.040   80.344
189.050   80.051
189.059   79.877
189.069   79.685
189.079   79.527
189.088   79.297
189.098   79.221
189.108   79.051
189.118   78.962
189.127   78.776
189.137   78.712
189.147   78.660
189.157   78.543
189.166   78.532
189.176   78.396
189.186   78.430
189.195   78.438
189.205   78.430
189.215   78.512
189.225   78.455
189.234   78.581
189.244   78.538
189.254   78.676
189.263   78.647
189.273   78.775
189.283   78.827
189.293   78.950
189.302   79.017
189.312   79.266
189.322   79.318
189.332   79.477
189.341   79.605
189.351   79.888
189.361   80.010
189.370   80.211
189.380   80.369
189.390   80.666
189.400   80.782
189.409   81.063
189.419   81.275
189.429   81.468
189.438   81.849
189.448   81.969
189.458   82.344
189.468   82.570
189.477   82.821
189.487   83.072
189.497   83.519
189.507   83.776
189.516   84.014
189.526   84.409
189.536   84.699
189.545   85.047
189.555   85.403
189.565   85.684
189.575   86.116
189.584   86.456
189.594   86.853
189.604   87.143
189.614   87.602
189.623   87.870
189.633   88.319
189.643   88.723
189.652   89.102
189.662   89.547
189.672   89.963
189.682   90.168
189.691   90.527
189.701   91.089
189.711   91.387
189.720   91.841
189.730   92.246
189.740   92.641
189.750   93.192
189.759   93.645
189.769   93.968
189.779   94.410
189.789   94.925
189.798   95.307
189.808   95.722
189.818   96.101
189.827   96.627
189.837   97.065
189.847   97.588
189.857   98.020
189.866   98.486
189.876   98.925
189.886   99.318
189.895   99.782
189.905   100.258
189.915   100.704
189.925   101.130
189.934   101.672
189.944   102.081
189.954   102.531
189.964   102.935
189.973   103.440
189.983   103.818
189.993   104.277
190.002   104.784
190.012   105.249
190.022   105.659
190.032   106.202
190.041   106.599
190.051   107.005
190.061   107.447
190.071   107.844
190.080   108.233
190.090   108.632
190.100   109.148
190.109   109.540
190.119   110.009
190.129   110.367
190.139   110.889
190.148   111.281
190.158   111.696
190.168   112.150
190.177   112.562
190.187   112.955
190.197   113.323
190.207   113.726
190.216   114.144
190.226   114.597
190.236   114.896
190.246   115.280
190.255   115.724
190.265   116.091
190.275   116.443
190.284   116.866
190.294   117.255
190.304   117.554
190.314   117.879
190.323   118.334
190.333   118.745
190.343   119.080
190.352   119.435
190.362   119.645
190.372   120.076
190.382   120.544
190.391   120.784
190.401   121.113
190.411   121.587
190.421   121.771
190.430   122.269
190.440   122.544
190.450   122.844
190.459   123.113
190.469   123.407
190.479   123.846
190.489   124.125
190.498   124.475
190.508   124.744
190.518   125.037
190.528   125.349
190.537   125.528
190.547   125.955
190.557   126.248
190.566   126.520
190.576   126.804
190.586   127.045
190.596   127.354
190.605   127.636
190.615   127.917
190.625   128.185
190.634   128.433
190.644   128.740
190.654   128.806
190.664   129.297
190.673   129.689
190.683   129.687
190.693   129.894
190.703   130.491
190.712   130.405
190.722   130.688
190.732   130.956
190.741   131.277
190.751   131.468
190.761   131.839
190.771   131.972
190.780   132.237
190.790   132.374
190.800   132.569
190.810   132.801
190.819   133.100
190.829   133.271
190.839   133.560
190.848   133.646
190.858   134.025
190.868   134.179
190.878   134.312
190.887   134.441
190.897   134.744
190.907   134.879
190.916   135.051
190.926   135.366
190.936   135.510
190.946   135.641
190.955   135.798
190.965   135.998
190.975   136.256
190.985   136.439
190.994   136.659
191.004   136.744
191.014   136.947
191.023   137.119
191.033   137.397
191.043   137.463
191.053   137.663
191.062   137.804
191.072   137.956
191.082   138.134
191.091   138.195
191.101   138.401
191.111   138.543
191.121   138.654
191.130   138.878
191.140   139.081
191.150   139.347
191.160   139.316
191.169   139.574
191.179   139.565
191.189   139.897
191.198   140.061
191.208   140.181
191.218   140.264
191.228   140.393
191.237   140.479
191.247   140.613
191.257   140.845
191.267   141.036
191.276   141.073
191.286   141.167
191.296   141.391
191.305   141.289
191.315   141.342
191.325   141.605
191.335   141.924
191.344   141.822
191.354   141.968
191.364   142.011
191.373   142.383
191.383   142.418
191.393   142.663
191.403   142.685
191.412   142.850
191.422   142.869
191.432   142.952
191.442   143.042
191.451   143.242
191.461   143.374
191.471   143.603
191.480   143.578
191.490   143.692
191.500   143.775
191.510   144.031
191.519   143.966
191.529   144.102
191.539   144.100
191.548   144.502
191.558   144.383
191.568   144.547
191.578   144.584
191.587   144.745
191.597   144.922
191.607   144.862
191.617   144.920
191.626   145.085
191.636   145.218
191.646   145.207
191.655   145.412
191.665   145.512
191.675   145.547
191.685   145.745
191.694   145.664
191.704   145.734
191.714   145.851
191.724   146.043
191.733   146.119
191.743   146.359
191.753   146.212
191.762   146.435
191.772   146.410
191.782   146.521
191.792   146.564
191.801   146.579
191.811   146.786
191.821   146.945
191.830   146.759
191.840   147.113
191.850   147.072
191.860   147.211
191.869   147.308
191.879   147.225
191.889   147.323
191.899   147.362
191.908   147.447
191.918   147.654
191.928   147.778
191.937   147.617
191.947   147.922
191.957   147.818
191.967   147.901
191.976   148.014
191.986   148.094
191.996   148.220
192.005   148.466
192.015   148.352
192.025   148.501
192.035   148.607
192.044   148.678
192.054   148.697
192.064   148.737
192.074   148.815
192.083   148.960
192.093   148.928
192.103   148.994
192.112   149.111
192.122   149.087
192.132   149.297
192.142   149.155
192.151   149.255
192.161   149.380
192.171   149.498
192.181   149.449
192.190   149.760
192.200   149.764
192.210   149.877
192.219   149.716
192.229   149.966
192.239   149.883
192.249   149.980
192.258   149.975
192.268   150.079
192.278   150.077
192.287   149.991
192.297   150.430
192.307   150.313
192.317   150.376
192.326   150.350
192.336   150.408
192.346   150.581
192.356   150.629
192.365   150.615
192.375   150.827
192.385   150.822
192.394   150.866
192.404   151.035
192.414   150.766
192.424   151.163
192.433   151.079
192.443   151.042
192.453   151.328
192.462   151.084
192.472   151.255
192.482   151.538
192.492   151.406
192.501   151.633
192.511   151.464
192.521   151.693
192.531   151.639
192.540   151.760
192.550   151.853
192.560   151.670
192.569   151.867
192.579   152.028
192.589   151.957
192.599   152.305
192.608   152.143
192.618   152.227
192.628   152.090
192.638   152.379
192.647   152.476
192.657   152.590
192.667   152.363
192.676   152.420
192.686   152.389
192.696   152.714
192.706   152.741
192.715   152.734
192.725   152.814
192.735   152.731
192.744   152.785
192.754   152.858
192.764   153.052
192.774   153.040
192.783   153.240
192.793   153.092
192.803   153.059
192.813   153.166
192.822   152.996
192.832   153.502
192.842   153.382
192.851   153.142
192.861   153.439
192.871   153.702
192.881   153.390
192.890   153.721
192.900   153.466
192.910   153.571
192.919   153.851
192.929   153.681
192.939   153.592
192.949   153.784
192.958   153.824
192.968   153.845
192.978   153.960
192.988   153.881
192.997   153.838
193.007   153.908
193.017   154.081
193.026   154.081
193.036   154.250
193.046   154.419
193.056   154.380
193.065   154.178
193.075   154.222
193.085   154.363
193.095   154.511
193.104   154.588



